LabVIEW Measurement	
Writer_Version	2
Reader_Version	2
Separator	Tab
Decimal_Separator	.
Multi_Headings	Yes
X_Columns	One
Time_Pref	Absolute
Operator	abarrett
Date	2018/07/16
Time	10:23:29.86138424994249363
***End_of_Header***	
	
Channels	1	
Samples	200	
Date	2018/07/16	
Time	10:23:29.86138424994249363	
Y_Unit_Label	Volts	
X_Dimension	Time	
X0	0.0000000000000000E+0	
Delta_X	0.010000	
***End_of_Header***		
X_Value	Voltage	Comment
0.000000	-2.502635
0.010000	-2.447062
0.020000	-2.353016
0.030000	-2.221482
0.040000	-2.055750
0.050000	-1.857792
0.060000	-1.629911
0.070000	-1.377367
0.080000	-1.103449
0.090000	-0.811773
0.100000	-0.507931
0.110000	-0.196197
0.120000	0.118497
0.130000	0.432204
0.140000	0.733087
0.150000	1.027065
0.160000	1.304601
0.170000	1.561749
0.180000	1.791605
0.190000	1.995153
0.200000	2.165819
0.210000	2.302943
0.220000	2.402580
0.230000	2.464730
0.240000	2.487091
0.250000	2.470649
0.260000	2.414418
0.270000	2.321358
0.280000	2.189824
0.290000	2.024749
0.300000	1.826461
0.310000	1.599894
0.320000	1.346363
0.330000	1.072444
0.340000	0.780768
0.350000	0.477583
0.360000	0.164862
0.370000	-0.149831
0.380000	-0.463210
0.390000	-0.764421
0.400000	-1.058398
0.410000	-1.334618
0.420000	-1.591766
0.430000	-1.823594
0.440000	-2.026813
0.450000	-2.198135
0.460000	-2.334272
0.470000	-2.434238
0.480000	-2.496716
0.490000	-2.519077
0.500000	-2.502964
0.510000	-2.445418
0.520000	-2.352687
0.530000	-2.222140
0.540000	-2.055750
0.550000	-1.857135
0.560000	-1.630897
0.570000	-1.376709
0.580000	-1.103777
0.590000	-0.811116
0.600000	-0.508260
0.610000	-0.196197
0.620000	0.118168
0.630000	0.431547
0.640000	0.733087
0.650000	1.027723
0.660000	1.304272
0.670000	1.561421
0.680000	1.791934
0.690000	1.995482
0.700000	2.165819
0.710000	2.303601
0.720000	2.402580
0.730000	2.465387
0.740000	2.487419
0.750000	2.470978
0.760000	2.414418
0.770000	2.322015
0.780000	2.190152
0.790000	2.024420
0.800000	1.826461
0.810000	1.599894
0.820000	1.346034
0.830000	1.072444
0.840000	0.779782
0.850000	0.476597
0.860000	0.164205
0.870000	-0.150160
0.880000	-0.462881
0.890000	-0.764750
0.900000	-1.058070
0.910000	-1.334618
0.920000	-1.591437
0.930000	-1.823265
0.940000	-2.026155
0.950000	-2.198135
0.960000	-2.334601
0.970000	-2.434238
0.980000	-2.496058
0.990000	-2.518419
1.000000	-2.502964
1.010000	-2.446733
1.020000	-2.352358
1.030000	-2.221811
1.040000	-2.056079
1.050000	-1.857792
1.060000	-1.629911
1.070000	-1.377038
1.080000	-1.103449
1.090000	-0.812102
1.100000	-0.507931
1.110000	-0.196197
1.120000	0.118497
1.130000	0.431218
1.140000	0.736704
1.150000	1.027065
1.160000	1.304601
1.170000	1.560434
1.180000	1.792591
1.190000	1.995482
1.200000	2.166476
1.210000	2.302943
1.220000	2.402909
1.230000	2.465059
1.240000	2.487748
1.250000	2.470649
1.260000	2.414747
1.270000	2.320700
1.280000	2.190152
1.290000	2.024091
1.300000	1.826790
1.310000	1.599565
1.320000	1.346363
1.330000	1.072115
1.340000	0.780439
1.350000	0.476268
1.360000	0.164862
1.370000	-0.150489
1.380000	-0.462223
1.390000	-0.768367
1.400000	-1.058070
1.410000	-1.334947
1.420000	-1.591766
1.430000	-1.823594
1.440000	-2.026484
1.450000	-2.198135
1.460000	-2.334272
1.470000	-2.433909
1.480000	-2.496387
1.490000	-2.519406
1.500000	-2.502306
1.510000	-2.445747
1.520000	-2.352687
1.530000	-2.221811
1.540000	-2.055421
1.550000	-1.858121
1.560000	-1.630569
1.570000	-1.377367
1.580000	-1.103120
1.590000	-0.812102
1.600000	-0.507273
1.610000	-0.196197
1.620000	0.118826
1.630000	0.431218
1.640000	0.737362
1.650000	1.026736
1.660000	1.304601
1.670000	1.560434
1.680000	1.792591
1.690000	1.995482
1.700000	2.166805
1.710000	2.302285
1.720000	2.403238
1.730000	2.464730
1.740000	2.487748
1.750000	2.470649
1.760000	2.414747
1.770000	2.320371
1.780000	2.190481
1.790000	2.023762
1.800000	1.826790
1.810000	1.599565
1.820000	1.347021
1.830000	1.071458
1.840000	0.780439
1.850000	0.476597
1.860000	0.165191
1.870000	-0.151147
1.880000	-0.462552
1.890000	-0.769025
1.900000	-1.057741
1.910000	-1.335276
1.920000	-1.591766
1.930000	-1.823594
1.940000	-2.026484
1.950000	-2.198135
1.960000	-2.334272
1.970000	-2.435224
1.980000	-2.496058
1.990000	-2.519077

